Di02-R405_Spectrum
Data format:  Wavelength (nm) <tab> Transmission (0 to 1)
345.0	0.00111
345.2	0.00123
345.4	8.99e-04
345.6	0.00129
345.8	9.0072e-04
346.0	0.00119
346.2	0.00125
346.4	0.00102
346.6	9.7451e-04
346.8	9.531e-04
347.0	0.00125
347.2	0.0016
347.4	0.0012
347.6	0.00105
347.8	0.00101
348.0	0.00125
348.2	0.00106
348.4	0.00103
348.6	0.00129
348.8	0.00166
349.0	0.00106
349.2	0.00115
349.4	0.00114
349.6	0.00108
349.8	9.9915e-04
350.0	0.0016
350.2	8.6321e-04
350.4	9.4128e-04
350.6	0.00105
350.8	9.6557e-04
351.0	9.5027e-04
351.2	0.00133
351.4	0.00113
351.6	0.00107
351.8	0.00118
352.0	0.00113
352.2	0.00142
352.4	0.00155
352.6	0.00119
352.8	0.00143
353.0	0.00128
353.2	0.00111
353.4	0.00108
353.6	0.00103
353.8	0.00105
354.0	0.00116
354.2	0.00134
354.4	0.00117
354.6	9.4669e-04
354.8	0.00109
355.0	0.0013
355.2	9.8626e-04
355.4	0.00102
355.6	9.5623e-04
355.8	0.00109
356.0	0.00112
356.2	0.00144
356.4	0.00142
356.6	0.00106
356.8	0.00113
357.0	0.0011
357.2	0.00116
357.4	0.00139
357.6	9.7168e-04
357.8	9.7444e-04
358.0	0.00118
358.2	0.00143
358.4	9.7456e-04
358.6	0.00132
358.8	9.5392e-04
359.0	0.00139
359.2	0.00122
359.4	0.00103
359.6	0.00121
359.8	0.00141
360.0	0.0015
360.2	0.00104
360.4	0.00152
360.6	0.00142
360.8	0.00116
361.0	0.00141
361.2	0.0013
361.4	0.00133
361.6	0.00139
361.8	0.00148
362.0	0.00101
362.2	0.00123
362.4	0.00137
362.6	0.0011
362.8	0.00126
363.0	0.00112
363.2	0.00138
363.4	0.00167
363.6	0.00166
363.8	0.00189
364.0	0.00191
364.2	0.00253
364.4	0.00181
364.6	0.00175
364.8	0.00155
365.0	0.00131
365.2	0.00112
365.4	0.00113
365.6	9.8256e-04
365.8	0.00106
366.0	8.8195e-04
366.2	0.00103
366.4	0.00137
366.6	0.00151
366.8	0.00204
367.0	0.00199
367.2	0.00229
367.4	0.00205
367.6	0.00143
367.8	0.00131
368.0	0.00136
368.2	8.7732e-04
368.4	9.7463e-04
368.6	6.0845e-04
368.8	9.429e-04
369.0	9.2944e-04
369.2	9.7146e-04
369.4	0.00126
369.6	0.00128
369.8	0.00188
370.0	0.00232
370.2	0.00285
370.4	0.00264
370.6	0.00255
370.8	0.0019
371.0	0.00134
371.2	0.00103
371.4	7.7955e-04
371.6	8.4796e-04
371.8	0.00114
372.0	8.0627e-04
372.2	7.9174e-04
372.4	8.9267e-04
372.6	0.00102
372.8	0.00115
373.0	0.0017
373.2	0.00232
373.4	0.00333
373.6	0.00414
373.8	0.00351
374.0	0.00272
374.2	0.00186
374.4	0.00126
374.6	0.00108
374.8	0.001
375.0	8.2689e-04
375.2	7.3253e-04
375.4	7.8836e-04
375.6	9.0242e-04
375.8	9.0054e-04
376.0	0.00107
376.2	0.00133
376.4	0.00206
376.6	0.00318
376.8	0.00443
377.0	0.00566
377.2	0.00563
377.4	0.00443
377.6	0.00281
377.8	0.0018
378.0	0.00127
378.2	0.0011
378.4	0.00104
378.6	9.1089e-04
378.8	9.3173e-04
379.0	7.6242e-04
379.2	9.527e-04
379.4	0.00138
379.6	0.00153
379.8	0.00233
380.0	0.00369
380.2	0.00594
380.4	0.00752
380.6	0.0087
380.8	0.00746
381.0	0.00524
381.2	0.00319
381.4	0.00214
381.6	0.0018
381.8	0.00151
382.0	0.00139
382.2	0.00127
382.4	0.00132
382.6	0.00125
382.8	0.00184
383.0	0.00214
383.2	0.00285
383.4	0.00404
383.6	0.00607
383.8	0.00898
384.0	0.01044
384.2	0.01032
384.4	0.00881
384.6	0.00653
384.8	0.00457
385.0	0.0035
385.2	0.00275
385.4	0.00243
385.6	0.00235
385.8	0.00247
386.0	0.0027
386.2	0.00319
386.4	0.00383
386.6	0.00513
386.8	0.00666
387.0	0.00868
387.2	0.01086
387.4	0.01197
387.6	0.01199
387.8	0.01086
388.0	0.00893
388.2	0.00731
388.4	0.00612
388.6	0.0057
388.8	0.00525
389.0	0.00529
389.2	0.00597
389.4	0.00625
389.6	0.00766
389.8	0.00913
390.0	0.01123
390.2	0.01308
390.4	0.0145
390.6	0.01488
390.8	0.0142
391.0	0.0126
391.2	0.01106
391.4	0.00975
391.6	0.00898
391.8	0.00884
392.0	0.01035
392.2	0.01234
392.4	0.01387
392.6	0.01516
392.8	0.01776
393.0	0.01824
393.2	0.01807
393.4	0.01706
393.6	0.01507
393.8	0.01309
394.0	0.01175
394.2	0.01157
394.4	0.01364
394.6	0.01491
394.8	0.01853
395.0	0.02045
395.2	0.01879
395.4	0.01428
395.6	0.00925
395.8	0.00531
396.0	0.00389
396.2	0.00278
396.4	0.00225
396.6	0.00232
396.8	0.00214
397.0	0.00249
397.2	0.00207
397.4	0.00199
397.6	0.00224
397.8	0.00181
398.0	0.00222
398.2	0.00218
398.4	0.00159
398.6	0.00216
398.8	0.00183
399.0	0.002
399.2	0.002
399.4	0.00208
399.6	0.00183
399.8	0.00231
400.0	0.00218
400.2	0.00177
400.4	0.00201
400.6	0.00202
400.8	0.00194
401.0	0.00205
401.2	0.00177
401.4	0.00162
401.6	0.00185
401.8	0.00171
402.0	0.00165
402.2	0.00202
402.4	0.00186
402.6	0.00185
402.8	0.00219
403.0	0.00221
403.2	0.00199
403.4	0.00167
403.6	0.00186
403.8	0.00193
404.0	0.0017
404.2	0.00178
404.4	0.0019
404.6	0.00163
404.8	0.00131
405.0	0.00181
405.2	0.00203
405.4	0.00157
405.6	0.00207
405.8	0.00202
406.0	0.00178
406.2	0.00141
406.4	0.00189
406.6	0.00154
406.8	0.00164
407.0	0.0017
407.2	0.00165
407.4	0.00186
407.6	0.00157
407.8	0.00201
408.0	0.00172
408.2	0.00187
408.4	0.00186
408.6	0.00173
408.8	0.00138
409.0	0.00195
409.2	0.00181
409.4	0.00157
409.6	0.00158
409.8	0.00156
410.0	0.00169
410.2	0.00174
410.4	0.00185
410.6	0.00167
410.8	0.00183
411.0	0.00233
411.2	0.00202
411.4	0.00202
411.6	0.0021
411.8	0.00268
412.0	0.0029
412.2	0.00331
412.4	0.00407
412.6	0.00518
412.8	0.00648
413.0	0.00873
413.2	0.01244
413.4	0.01782
413.6	0.02751
413.8	0.04276
414.0	0.06749
414.2	0.10501
414.4	0.15457
414.6	0.216
414.8	0.27812
415.0	0.3346
415.2	0.37915
415.4	0.41507
415.6	0.4493
415.8	0.48839
416.0	0.54881
416.2	0.63135
416.4	0.72516
416.6	0.81456
416.8	0.87888
417.0	0.91835
417.2	0.93395
417.4	0.93923
417.6	0.94413
417.8	0.94242
418.0	0.94383
418.2	0.94062
418.4	0.941
418.6	0.93789
418.8	0.94458
419.0	0.94828
419.2	0.9513
419.4	0.95459
419.6	0.95647
419.8	0.95865
420.0	0.95718
420.2	0.95983
420.4	0.95776
420.6	0.96002
420.8	0.95893
421.0	0.95852
421.2	0.95991
421.4	0.95849
421.6	0.95896
421.8	0.95814
422.0	0.96065
422.2	0.95992
422.4	0.96256
422.6	0.95879
422.8	0.95852
423.0	0.96178
423.2	0.95829
423.4	0.96004
423.6	0.96068
423.8	0.95949
424.0	0.95874
424.2	0.95752
424.4	0.95852
424.6	0.95993
424.8	0.9551
425.0	0.95773
425.2	0.95701
425.4	0.95787
425.6	0.95815
425.8	0.96192
426.0	0.96079
426.2	0.95958
426.4	0.95951
426.6	0.95841
426.8	0.9563
427.0	0.96251
427.2	0.96009
427.4	0.96201
427.6	0.96085
427.8	0.96014
428.0	0.95996
428.2	0.95968
428.4	0.96181
428.6	0.96157
428.8	0.96112
429.0	0.96002
429.2	0.96167
429.4	0.96106
429.6	0.96536
429.8	0.96822
430.0	0.96831
430.2	0.96717
430.4	0.96702
430.6	0.9668
430.8	0.96321
431.0	0.96276
431.2	0.96408
431.4	0.95975
431.6	0.96051
431.8	0.9589
432.0	0.95809
432.2	0.95694
432.4	0.95787
432.6	0.95921
432.8	0.95734
433.0	0.95734
433.2	0.95785
433.4	0.9581
433.6	0.96019
433.8	0.95988
434.0	0.96002
434.2	0.95761
434.4	0.95909
434.6	0.96031
434.8	0.95915
435.0	0.9603
435.2	0.95684
435.4	0.95745
435.6	0.95685
435.8	0.9579
436.0	0.95737
436.2	0.95581
436.4	0.95494
436.6	0.95533
436.8	0.95631
437.0	0.95593
437.2	0.9555
437.4	0.95724
437.6	0.95703
437.8	0.95631
438.0	0.96002
438.2	0.95839
438.4	0.9576
438.6	0.95672
438.8	0.9584
439.0	0.95978
439.2	0.96251
439.4	0.95915
439.6	0.95951
439.8	0.95826
440.0	0.95835
440.2	0.95685
440.4	0.95813
440.6	0.96043
440.8	0.95615
441.0	0.95848
441.2	0.96048
441.4	0.96163
441.6	0.96215
441.8	0.96158
442.0	0.96051
442.2	0.96288
442.4	0.96187
442.6	0.95981
442.8	0.95956
443.0	0.9598
443.2	0.95965
443.4	0.96285
443.6	0.96027
443.8	0.95991
444.0	0.95878
444.2	0.95948
444.4	0.9582
444.6	0.95881
444.8	0.95994
445.0	0.95585
445.2	0.95956
445.4	0.95649
445.6	0.9586
445.8	0.9559
446.0	0.95671
446.2	0.95765
446.4	0.95718
446.6	0.95443
446.8	0.9558
447.0	0.95552
447.2	0.95499
447.4	0.95252
447.6	0.95324
447.8	0.95348
448.0	0.95229
448.2	0.95277
448.4	0.95131
448.6	0.9507
448.8	0.95142
449.0	0.95229
449.2	0.95328
449.4	0.95335
449.6	0.95389
449.8	0.95298
450.0	0.95448
450.2	0.95451
450.4	0.95205
450.6	0.9532
450.8	0.95402
451.0	0.95373
451.2	0.95412
451.4	0.95417
451.6	0.95239
451.8	0.95203
452.0	0.94954
452.2	0.94951
452.4	0.94785
452.6	0.94862
452.8	0.94755
453.0	0.94949
453.2	0.94788
453.4	0.94875
453.6	0.94677
453.8	0.94903
454.0	0.94947
454.2	0.95029
454.4	0.95013
454.6	0.95231
454.8	0.95598
455.0	0.95512
455.2	0.95538
455.4	0.95537
455.6	0.95524
455.8	0.95691
456.0	0.95655
456.2	0.95882
456.4	0.95652
456.6	0.9564
456.8	0.95507
457.0	0.95553
457.2	0.95618
457.4	0.95378
457.6	0.95102
457.8	0.95086
458.0	0.95061
458.2	0.94958
458.4	0.94794
458.6	0.95055
458.8	0.95139
459.0	0.95213
459.2	0.95193
459.4	0.95032
459.6	0.9519
459.8	0.95378
460.0	0.95462
460.2	0.95705
460.4	0.95601
460.6	0.95569
460.8	0.95891
461.0	0.95751
461.2	0.95667
461.4	0.95776
461.6	0.96014
461.8	0.95956
462.0	0.95514
462.2	0.95557
462.4	0.95399
462.6	0.95374
462.8	0.95249
463.0	0.95134
463.2	0.95206
463.4	0.95132
463.6	0.95047
463.8	0.95151
464.0	0.95045
464.2	0.95087
464.4	0.95288
464.6	0.95041
464.8	0.95275
465.0	0.95428
465.2	0.95406
465.4	0.95371
465.6	0.95547
465.8	0.95498
466.0	0.95607
466.2	0.95633
466.4	0.95527
466.6	0.95773
466.8	0.95656
467.0	0.95297
467.2	0.95222
467.4	0.95299
467.6	0.95155
467.8	0.95331
468.0	0.95091
468.2	0.95054
468.4	0.94902
468.6	0.94728
468.8	0.94686
469.0	0.94778
469.2	0.94747
469.4	0.94628
469.6	0.94628
469.8	0.94747
470.0	0.94698
470.2	0.94855
470.4	0.94937
470.6	0.95009
470.8	0.95185
471.0	0.95095
471.2	0.95088
471.4	0.95134
471.6	0.95278
471.8	0.95301
472.0	0.95438
472.2	0.95486
472.4	0.95607
472.6	0.95486
472.8	0.95562
473.0	0.95548
473.2	0.95499
473.4	0.95538
473.6	0.9561
473.8	0.95396
474.0	0.95276
474.2	0.9535
474.4	0.9535
474.6	0.9533
474.8	0.95471
475.0	0.95301
475.2	0.95113
475.4	0.95036
475.6	0.95132
475.8	0.95151
476.0	0.9529
476.2	0.95289
476.4	0.95333
476.6	0.95515
476.8	0.95896
477.0	0.95788
477.2	0.95665
477.4	0.95778
477.6	0.95717
477.8	0.95829
478.0	0.95848
478.2	0.95927
478.4	0.96291
478.6	0.96006
478.8	0.959
479.0	0.96027
479.2	0.96008
479.4	0.95566
479.6	0.95546
479.8	0.95665
480.0	0.95574
480.2	0.95647
480.4	0.95646
480.6	0.95638
480.8	0.9561
481.0	0.95646
481.2	0.95676
481.4	0.95709
481.6	0.95679
481.8	0.95604
482.0	0.95627
482.2	0.9559
482.4	0.95575
482.6	0.9561
482.8	0.95784
483.0	0.9592
483.2	0.95941
483.4	0.95861
483.6	0.95941
483.8	0.95826
484.0	0.95738
484.2	0.95734
484.4	0.95815
484.6	0.9559
484.8	0.9565
485.0	0.95713
485.2	0.95619
485.4	0.95761
485.6	0.95707
485.8	0.95608
486.0	0.9554
486.2	0.95367
486.4	0.95578
486.6	0.95407
486.8	0.9552
487.0	0.95502
487.2	0.95465
487.4	0.95485
487.6	0.95372
487.8	0.95399
488.0	0.95352
488.2	0.95365
488.4	0.95491
488.6	0.95571
488.8	0.9549
489.0	0.95569
489.2	0.9556
489.4	0.95494
489.6	0.95491
489.8	0.95324
490.0	0.9563
490.2	0.95522
490.4	0.95524
490.6	0.95587
490.8	0.95771
491.0	0.95788
491.2	0.95708
491.4	0.9556
491.6	0.9555
491.8	0.95545
492.0	0.95664
492.2	0.95679
492.4	0.95697
492.6	0.95551
492.8	0.95669
493.0	0.95923
493.2	0.95928
493.4	0.95802
493.6	0.95712
493.8	0.95707
494.0	0.95885
494.2	0.95858
494.4	0.95786
494.6	0.95786
494.8	0.95893
495.0	0.95982
495.2	0.95971
495.4	0.95883
495.6	0.95988
495.8	0.95968
496.0	0.96033
496.2	0.95971
496.4	0.9597
496.6	0.95911
496.8	0.96037
497.0	0.96046
497.2	0.95883
497.4	0.9592
497.6	0.95905
497.8	0.9594
498.0	0.96027
498.2	0.95634
498.4	0.95727
498.6	0.96036
498.8	0.95914
499.0	0.95988
499.2	0.95992
499.4	0.95908
499.6	0.96067
499.8	0.96105
500.0	0.96056
500.2	0.96052
500.4	0.95736
500.6	0.95885
500.8	0.96014
501.0	0.96041
501.2	0.96153
501.4	0.96247
501.6	0.96145
501.8	0.96149
502.0	0.96435
502.2	0.96143
502.4	0.96193
502.6	0.9602
502.8	0.96177
503.0	0.96461
503.2	0.96333
503.4	0.96138
503.6	0.96211
503.8	0.96382
504.0	0.96425
504.2	0.96532
504.4	0.96345
504.6	0.96248
504.8	0.96431
505.0	0.9651
505.2	0.96382
505.4	0.9655
505.6	0.96525
505.8	0.96535
506.0	0.96246
506.2	0.9624
506.4	0.96236
506.6	0.96191
506.8	0.96155
507.0	0.96197
507.2	0.9649
507.4	0.96534
507.6	0.9641
507.8	0.96427
508.0	0.96582
508.2	0.9643
508.4	0.96231
508.6	0.96189
508.8	0.96099
509.0	0.96166
509.2	0.95952
509.4	0.96312
509.6	0.96098
509.8	0.95953
510.0	0.9575
510.2	0.95842
510.4	0.9604
510.6	0.95985
510.8	0.95974
511.0	0.96043
511.2	0.95859
511.4	0.95849
511.6	0.96048
511.8	0.96152
512.0	0.96238
512.2	0.96041
512.4	0.96048
512.6	0.9599
512.8	0.95949
513.0	0.95851
513.2	0.95888
513.4	0.96017
513.6	0.96258
513.8	0.96186
514.0	0.96323
514.2	0.96189
514.4	0.96235
514.6	0.96386
514.8	0.96521
515.0	0.96615
515.2	0.96455
515.4	0.96607
515.6	0.96637
515.8	0.96519
516.0	0.96527
516.2	0.96596
516.4	0.96527
516.6	0.96591
516.8	0.96311
517.0	0.9625
517.2	0.96334
517.4	0.96544
517.6	0.96728
517.8	0.9659
518.0	0.9673
518.2	0.96685
518.4	0.96872
518.6	0.96757
518.8	0.96816
519.0	0.96858
519.2	0.9683
519.4	0.96712
519.6	0.96737
519.8	0.96799
520.0	0.9672
520.2	0.96759
520.4	0.9665
520.6	0.96885
520.8	0.96789
521.0	0.96711
521.2	0.96732
521.4	0.96697
521.6	0.96594
521.8	0.96878
522.0	0.96822
522.2	0.96938
522.4	0.96879
522.6	0.96789
522.8	0.9697
523.0	0.97087
523.2	0.9698
523.4	0.96714
523.6	0.9663
523.8	0.9655
524.0	0.96711
524.2	0.96796
524.4	0.96765
524.6	0.96915
524.8	0.96891
525.0	0.97019
525.2	0.96831
525.4	0.96755
525.6	0.96785
525.8	0.96925
526.0	0.96937
526.2	0.97131
526.4	0.97058
526.6	0.9689
526.8	0.96627
527.0	0.96794
527.2	0.9689
527.4	0.96858
527.6	0.96779
527.8	0.9695
528.0	0.96806
528.2	0.9668
528.4	0.96763
528.6	0.96851
528.8	0.96909
529.0	0.96819
529.2	0.96943
529.4	0.9676
529.6	0.9677
529.8	0.96743
530.0	0.96938
530.2	0.96823
530.4	0.96651
530.6	0.96489
530.8	0.96544
531.0	0.9642
531.2	0.96523
531.4	0.9654
531.6	0.96541
531.8	0.96459
532.0	0.96493
532.2	0.96584
532.4	0.96736
532.6	0.96647
532.8	0.96778
533.0	0.96896
533.2	0.96527
533.4	0.96457
533.6	0.9679
533.8	0.96763
534.0	0.96816
534.2	0.9691
534.4	0.96871
534.6	0.96864
534.8	0.97036
535.0	0.97068
535.2	0.97107
535.4	0.9693
535.6	0.97154
535.8	0.97293
536.0	0.97504
536.2	0.9781
536.4	0.97655
536.6	0.97602
536.8	0.97574
537.0	0.97636
537.2	0.97761
537.4	0.97813
537.6	0.97634
537.8	0.97631
538.0	0.97484
538.2	0.97558
538.4	0.97582
538.6	0.97672
538.8	0.97631
539.0	0.9748
539.2	0.97533
539.4	0.97404
539.6	0.9743
539.8	0.97076
540.0	0.9696
540.2	0.9718
540.4	0.9697
540.6	0.96931
540.8	0.97154
541.0	0.97186
541.2	0.97076
541.4	0.97066
541.6	0.9711
541.8	0.96787
542.0	0.96545
542.2	0.96775
542.4	0.96905
542.6	0.96884
542.8	0.96766
543.0	0.96879
543.2	0.96838
543.4	0.96691
543.6	0.96737
543.8	0.96669
544.0	0.96552
544.2	0.96571
544.4	0.96681
544.6	0.97107
544.8	0.96937
545.0	0.96684
545.2	0.96401
545.4	0.96573
545.6	0.96508
545.8	0.96554
546.0	0.96479
546.2	0.96472
546.4	0.96502
546.6	0.96477
546.8	0.96432
547.0	0.96451
547.2	0.96491
547.4	0.96425
547.6	0.96382
547.8	0.96209
548.0	0.96363
548.2	0.96408
548.4	0.9619
548.6	0.96235
548.8	0.9636
549.0	0.96631
549.2	0.96703
549.4	0.96702
549.6	0.96805
549.8	0.96748
550.0	0.96686
550.2	0.96302
550.4	0.96301
550.6	0.96233
550.8	0.96112
551.0	0.96364
551.2	0.96524
551.4	0.96674
551.6	0.96648
551.8	0.96814
552.0	0.96896
552.2	0.96659
552.4	0.96713
552.6	0.96665
552.8	0.96637
553.0	0.96698
553.2	0.96707
553.4	0.96779
553.6	0.96749
553.8	0.96683
554.0	0.96484
554.2	0.96422
554.4	0.96456
554.6	0.9652
554.8	0.96345
555.0	0.96226
555.2	0.96151
555.4	0.95866
555.6	0.95751
555.8	0.95744
556.0	0.95744
556.2	0.95588
556.4	0.9585
556.6	0.95825
556.8	0.95879
557.0	0.95988
557.2	0.96079
557.4	0.95951
557.6	0.95697
557.8	0.95859
558.0	0.95887
558.2	0.96049
558.4	0.9598
558.6	0.95528
558.8	0.95472
559.0	0.95766
559.2	0.9626
559.4	0.96113
559.6	0.96133
559.8	0.96352
560.0	0.96451
560.2	0.96516
560.4	0.96384
560.6	0.96195
560.8	0.9618
561.0	0.9639
561.2	0.96339
561.4	0.96401
561.6	0.96216
561.8	0.96165
562.0	0.9625
562.2	0.96368
562.4	0.96533
562.6	0.96347
562.8	0.96294
563.0	0.96165
563.2	0.9638
563.4	0.96497
563.6	0.96315
563.8	0.96384
564.0	0.96423
564.2	0.96358
564.4	0.96213
564.6	0.96227
564.8	0.96044
565.0	0.96014
565.2	0.96364
565.4	0.96201
565.6	0.96164
565.8	0.96245
566.0	0.96244
566.2	0.96152
566.4	0.95853
566.6	0.96004
566.8	0.96051
567.0	0.95896
567.2	0.96063
567.4	0.96023
567.6	0.96134
567.8	0.96211
568.0	0.96069
568.2	0.96177
568.4	0.96314
568.6	0.96403
568.8	0.96442
569.0	0.96223
569.2	0.96242
569.4	0.96301
569.6	0.96519
569.8	0.96242
570.0	0.9633
570.2	0.96475
570.4	0.96445
570.6	0.9646
570.8	0.96342
571.0	0.96402
571.2	0.96497
571.4	0.96516
571.6	0.96261
571.8	0.96445
572.0	0.96637
572.2	0.96736
572.4	0.96647
572.6	0.9656
572.8	0.96158
573.0	0.96267
573.2	0.96229
573.4	0.96321
573.6	0.9628
573.8	0.96077
574.0	0.95961
574.2	0.95866
574.4	0.95924
574.6	0.95916
574.8	0.95818
575.0	0.9593
575.2	0.95835
575.4	0.9599
575.6	0.96094
575.8	0.95999
576.0	0.95755
576.2	0.95679
576.4	0.95904
576.6	0.96092
576.8	0.95998
577.0	0.95892
577.2	0.95908
577.4	0.95975
577.6	0.95956
577.8	0.95925
578.0	0.959
578.2	0.96129
578.4	0.96014
578.6	0.95771
578.8	0.95753
579.0	0.95975
579.2	0.96015
579.4	0.95989
579.6	0.95958
579.8	0.96021
580.0	0.95852
580.2	0.9578
580.4	0.95959
580.6	0.96021
580.8	0.95892
581.0	0.95845
581.2	0.95612
581.4	0.95486
581.6	0.95502
581.8	0.9543
582.0	0.95457
582.2	0.95466
582.4	0.95498
582.6	0.95467
582.8	0.95429
583.0	0.95275
583.2	0.95245
583.4	0.95237
583.6	0.95343
583.8	0.95397
584.0	0.95524
584.2	0.95673
584.4	0.95464
584.6	0.95467
584.8	0.9548
585.0	0.9554
585.2	0.95478
585.4	0.95669
585.6	0.95591
585.8	0.95475
586.0	0.95667
586.2	0.95743
586.4	0.95975
586.6	0.95995
586.8	0.95775
587.0	0.95916
587.2	0.9611
587.4	0.96163
587.6	0.96135
587.8	0.96225
588.0	0.96094
588.2	0.96172
588.4	0.96163
588.6	0.96058
588.8	0.9611
589.0	0.9612
589.2	0.96208
589.4	0.96223
589.6	0.96003
589.8	0.95996
590.0	0.95959
590.2	0.95913
590.4	0.96107
590.6	0.95949
590.8	0.95822
591.0	0.95879
591.2	0.95913
591.4	0.95775
591.6	0.95735
591.8	0.9562
592.0	0.95327
592.2	0.95125
592.4	0.95145
592.6	0.9534
592.8	0.9528
593.0	0.95167
593.2	0.95151
593.4	0.95109
593.6	0.95124
593.8	0.95086
594.0	0.95368
594.2	0.952
594.4	0.95031
594.6	0.94859
594.8	0.95017
595.0	0.95037
595.2	0.95231
595.4	0.9517
595.6	0.95123
595.8	0.95449
596.0	0.95791
596.2	0.95614
596.4	0.95686
596.6	0.95667
596.8	0.95837
597.0	0.95897
597.2	0.95974
597.4	0.96246
597.6	0.96268
597.8	0.96173
598.0	0.96147
598.2	0.9614
598.4	0.96188
598.6	0.96354
598.8	0.96356
599.0	0.96316
599.2	0.96336
599.4	0.96256
599.6	0.96226
599.8	0.96165
600.0	0.96318
600.2	0.96207
600.4	0.96211
600.6	0.96039
600.8	0.95994
601.0	0.96058
601.2	0.96223
601.4	0.96168
601.6	0.9615
601.8	0.9597
602.0	0.95814
602.2	0.958
602.4	0.95896
602.6	0.9551
602.8	0.95303
603.0	0.95247
603.2	0.95436
603.4	0.95474
603.6	0.95406
603.8	0.95191
604.0	0.95149
604.2	0.95197
604.4	0.95159
604.6	0.95075
604.8	0.9525
605.0	0.95213
605.2	0.95079
605.4	0.95017
605.6	0.9515
605.8	0.9533
606.0	0.95249
606.2	0.95287
606.4	0.95466
606.6	0.95364
606.8	0.95052
607.0	0.9514
607.2	0.95325
607.4	0.95655
607.6	0.95727
607.8	0.9573
608.0	0.95691
608.2	0.95737
608.4	0.95711
608.6	0.95676
608.8	0.95708
609.0	0.95777
609.2	0.95703
609.4	0.95496
609.6	0.95519
609.8	0.95436
610.0	0.95537
610.2	0.95592
610.4	0.95627
610.6	0.95421
610.8	0.95356
611.0	0.9567
611.2	0.95747
611.4	0.95483
611.6	0.95289
611.8	0.95421
612.0	0.95289
612.2	0.95389
612.4	0.95376
612.6	0.95152
612.8	0.95246
613.0	0.95181
613.2	0.95195
613.4	0.95173
613.6	0.95077
613.8	0.94953
614.0	0.94952
614.2	0.94969
614.4	0.94948
614.6	0.94983
614.8	0.94869
615.0	0.94982
615.2	0.94935
615.4	0.94984
615.6	0.94912
615.8	0.94929
616.0	0.95076
616.2	0.94916
616.4	0.9497
616.6	0.95034
616.8	0.9484
617.0	0.94761
617.2	0.94624
617.4	0.94709
617.6	0.9492
617.8	0.94527
618.0	0.94656
618.2	0.9475
618.4	0.94916
618.6	0.95322
618.8	0.95378
619.0	0.95469
619.2	0.9558
619.4	0.9555
619.6	0.9555
619.8	0.95529
620.0	0.9564
620.2	0.95541
620.4	0.95685
620.6	0.95669
620.8	0.95517
621.0	0.95313
621.2	0.95684
621.4	0.95964
621.6	0.95782
621.8	0.96045
622.0	0.96098
622.2	0.95914
622.4	0.9558
622.6	0.9582
622.8	0.95741
623.0	0.95629
623.2	0.95543
623.4	0.95457
623.6	0.9552
623.8	0.9531
624.0	0.95277
624.2	0.95383
624.4	0.95701
624.6	0.95559
624.8	0.95587
625.0	0.95425
625.2	0.95587
625.4	0.9555
625.6	0.95617
625.8	0.954
626.0	0.95474
626.2	0.95302
626.4	0.95476
626.6	0.95546
626.8	0.95481
627.0	0.95398
627.2	0.9533
627.4	0.95419
627.6	0.95427
627.8	0.95314
628.0	0.95335
628.2	0.9546
628.4	0.95259
628.6	0.95354
628.8	0.95596
629.0	0.95513
629.2	0.95614
629.4	0.95713
629.6	0.95694
629.8	0.95893
630.0	0.9555
630.2	0.95713
630.4	0.95848
630.6	0.95948
630.8	0.96128
631.0	0.96174
631.2	0.96246
631.4	0.96151
631.6	0.96094
631.8	0.96094
632.0	0.95981
632.2	0.96039
632.4	0.9594
632.6	0.95852
632.8	0.96042
633.0	0.9617
633.2	0.96198
633.4	0.95957
633.6	0.95986
633.8	0.95958
634.0	0.95698
634.2	0.95848
634.4	0.95782
634.6	0.95582
634.8	0.95537
635.0	0.95572
635.2	0.9538
635.4	0.9549
635.6	0.95452
635.8	0.95562
636.0	0.95601
636.2	0.9574
636.4	0.9564
636.6	0.9571
636.8	0.95597
637.0	0.95442
637.2	0.95268
637.4	0.95149
637.6	0.95302
637.8	0.95309
638.0	0.95289
638.2	0.95297
638.4	0.95339
638.6	0.95528
638.8	0.95596
639.0	0.9564
639.2	0.95559
639.4	0.95474
639.6	0.95369
639.8	0.95656
640.0	0.95751
640.2	0.95825
640.4	0.95867
640.6	0.95702
640.8	0.95751
641.0	0.9554
641.2	0.95586
641.4	0.95709
641.6	0.95717
641.8	0.95751
642.0	0.95815
642.2	0.95663
642.4	0.95656
642.6	0.95591
642.8	0.95498
643.0	0.95669
643.2	0.95777
643.4	0.95721
643.6	0.9579
643.8	0.95925
644.0	0.95992
644.2	0.95685
644.4	0.95656
644.6	0.95649
644.8	0.9561
645.0	0.95736
645.2	0.95602
645.4	0.95545
645.6	0.95622
645.8	0.95438
646.0	0.95158
646.2	0.9534
646.4	0.95174
646.6	0.95324
646.8	0.95349
647.0	0.95265
647.2	0.95118
647.4	0.95175
647.6	0.94664
647.8	0.94467
648.0	0.94778
648.2	0.94882
648.4	0.94901
648.6	0.94845
648.8	0.9479
649.0	0.95061
649.2	0.95233
649.4	0.95327
649.6	0.95212
649.8	0.95089
650.0	0.95232
650.2	0.95298
650.4	0.95128
650.6	0.94816
650.8	0.94904
651.0	0.95102
651.2	0.95283
651.4	0.9524
651.6	0.95393
651.8	0.95536
652.0	0.95713
652.2	0.95626
652.4	0.95664
652.6	0.95823
652.8	0.95743
653.0	0.95743
653.2	0.95787
653.4	0.958
653.6	0.95795
653.8	0.95956
654.0	0.96035
654.2	0.96229
654.4	0.9618
654.6	0.9622
654.8	0.96302
655.0	0.96302
655.2	0.96257
655.4	0.96281
655.6	0.9609
655.8	0.96122
656.0	0.96217
656.2	0.96078
656.4	0.96037
656.6	0.96353
656.8	0.96425
657.0	0.96264
657.2	0.96094
657.4	0.96241
657.6	0.96183
657.8	0.96018
658.0	0.9594
658.2	0.95957
658.4	0.95827
658.6	0.96021
658.8	0.96
659.0	0.95987
659.2	0.95913
659.4	0.95726
659.6	0.95552
659.8	0.95493
660.0	0.95185
660.2	0.95371
660.4	0.95382
660.6	0.95401
660.8	0.95264
661.0	0.95332
661.2	0.95421
661.4	0.95354
661.6	0.95565
661.8	0.95571
662.0	0.95661
662.2	0.95617
662.4	0.95615
662.6	0.95627
662.8	0.95614
663.0	0.95503
663.2	0.95859
663.4	0.95905
663.6	0.95888
663.8	0.95781
664.0	0.95829
664.2	0.95663
664.4	0.95537
664.6	0.95682
664.8	0.95606
665.0	0.95862
665.2	0.95906
665.4	0.96168
665.6	0.9629
665.8	0.96301
666.0	0.96607
666.2	0.96746
666.4	0.96755
666.6	0.96671
666.8	0.96766
667.0	0.96715
667.2	0.96925
667.4	0.97001
667.6	0.96769
667.8	0.96681
668.0	0.97019
668.2	0.97399
668.4	0.97326
668.6	0.97256
668.8	0.96997
669.0	0.96986
669.2	0.97062
669.4	0.96897
669.6	0.96834
669.8	0.96525
670.0	0.9634
670.2	0.96324
670.4	0.96263
670.6	0.96228
670.8	0.96374
671.0	0.96266
671.2	0.96206
671.4	0.96226
671.6	0.96314
671.8	0.96429
672.0	0.96638
672.2	0.965
672.4	0.96607
672.6	0.96326
672.8	0.96267
673.0	0.96025
673.2	0.95821
673.4	0.957
673.6	0.95514
673.8	0.95584
674.0	0.95601
674.2	0.95483
674.4	0.9542
674.6	0.95427
674.8	0.95581
675.0	0.95385
675.2	0.95355
675.4	0.95379
675.6	0.95605
675.8	0.95589
676.0	0.95574
676.2	0.95675
676.4	0.95724
676.6	0.9583
676.8	0.95848
677.0	0.95876
677.2	0.96047
677.4	0.96065
677.6	0.96186
677.8	0.9597
678.0	0.96022
678.2	0.96351
678.4	0.96329
678.6	0.96397
678.8	0.96395
679.0	0.96572
679.2	0.96502
679.4	0.96438
679.6	0.96435
679.8	0.9659
680.0	0.96848
680.2	0.96809
680.4	0.97039
680.6	0.96908
680.8	0.96837
681.0	0.96756
681.2	0.96948
681.4	0.96906
681.6	0.96887
681.8	0.9692
682.0	0.97014
682.2	0.96908
682.4	0.96777
682.6	0.9673
682.8	0.96999
683.0	0.96986
683.2	0.96918
683.4	0.96342
683.6	0.96185
683.8	0.96024
684.0	0.95977
684.2	0.95897
684.4	0.96206
684.6	0.96282
684.8	0.96417
685.0	0.96346
685.2	0.96203
685.4	0.96016
685.6	0.95714
685.8	0.95875
686.0	0.95977
686.2	0.95782
686.4	0.95831
686.6	0.96039
686.8	0.95848
687.0	0.95894
687.2	0.95947
687.4	0.95948
687.6	0.95987
687.8	0.95825
688.0	0.95665
688.2	0.95678
688.4	0.95404
688.6	0.95204
688.8	0.95133
689.0	0.95134
689.2	0.95493
689.4	0.95466
689.6	0.95426
689.8	0.95662
690.0	0.95702
690.2	0.95727
690.4	0.95729
690.6	0.95718
690.8	0.95691
691.0	0.95803
691.2	0.95702
691.4	0.95804
691.6	0.96078
691.8	0.96061
692.0	0.96118
692.2	0.96103
692.4	0.96267
692.6	0.96316
692.8	0.96072
693.0	0.96071
693.2	0.96268
693.4	0.96546
693.6	0.96693
693.8	0.9693
694.0	0.96854
694.2	0.96888
694.4	0.96951
694.6	0.96987
694.8	0.969
695.0	0.96628
695.2	0.96523
695.4	0.96503
695.6	0.9687
695.8	0.97098
696.0	0.97016
696.2	0.97046
696.4	0.97109
696.6	0.97285
696.8	0.97392
697.0	0.97432
697.2	0.97255
697.4	0.97073
697.6	0.96981
697.8	0.96845
698.0	0.96825
698.2	0.96734
698.4	0.96854
698.6	0.96858
698.8	0.96533
699.0	0.96564
699.2	0.96617
699.4	0.9648
699.6	0.96317
699.8	0.96138
700.0	0.96155
700.2	0.96277
700.4	0.96213
700.6	0.9611
700.8	0.95898
701.0	0.96005
701.2	0.96255
701.4	0.96216
701.6	0.96201
701.8	0.96007
702.0	0.95981
702.2	0.95886
702.4	0.95966
702.6	0.95864
702.8	0.9599
703.0	0.96084
703.2	0.95962
703.4	0.95801
703.6	0.95953
703.8	0.95725
704.0	0.95769
704.2	0.9579
704.4	0.959
704.6	0.96081
704.8	0.96231
705.0	0.9614
705.2	0.9612
705.4	0.96154
705.6	0.96181
705.8	0.96258
706.0	0.96445
706.2	0.96578
706.4	0.96494
706.6	0.96305
706.8	0.96714
707.0	0.96834
707.2	0.96482
707.4	0.96484
707.6	0.96732
707.8	0.96736
708.0	0.96639
708.2	0.9683
708.4	0.97037
708.6	0.97245
708.8	0.97329
709.0	0.97491
709.2	0.97489
709.4	0.97814
709.6	0.98046
709.8	0.97824
710.0	0.97809
710.2	0.97758
710.4	0.97596
710.6	0.97622
710.8	0.97531
711.0	0.97501
711.2	0.97205
711.4	0.9719
711.6	0.97296
711.8	0.97466
712.0	0.97409
712.2	0.97139
712.4	0.97127
712.6	0.97334
712.8	0.97559
713.0	0.97282
713.2	0.97262
713.4	0.97008
713.6	0.9709
713.8	0.97086
714.0	0.97027
714.2	0.96984
714.4	0.97134
714.6	0.97283
714.8	0.97062
715.0	0.96619
715.2	0.96586
715.4	0.96711
715.6	0.96708
715.8	0.96668
716.0	0.96426
716.2	0.96287
716.4	0.96314
716.6	0.96338
716.8	0.96103
717.0	0.96079
717.2	0.95832
717.4	0.9612
717.6	0.95848
717.8	0.95548
718.0	0.95765
718.2	0.95915
718.4	0.9567
718.6	0.95705
718.8	0.95966
719.0	0.95904
719.2	0.96143
719.4	0.9638
719.6	0.966
719.8	0.96311
720.0	0.96491
720.2	0.96474
720.4	0.96602
720.6	0.96581
720.8	0.9634
721.0	0.96447
721.2	0.96292
721.4	0.95977
721.6	0.96045
721.8	0.96454
722.0	0.96544
722.2	0.96492
722.4	0.96341
722.6	0.96456
722.8	0.96631
723.0	0.96558
723.2	0.96728
723.4	0.9697
723.6	0.96877
723.8	0.97116
724.0	0.97299
724.2	0.97212
724.4	0.97173
724.6	0.97342
724.8	0.97533
725.0	0.97488
725.2	0.97365
725.4	0.97321
725.6	0.96953
725.8	0.96912
726.0	0.96792
726.2	0.96933
726.4	0.96903
726.6	0.96483
726.8	0.96493
727.0	0.96751
727.2	0.96987
727.4	0.96846
727.6	0.96684
727.8	0.96737
728.0	0.96921
728.2	0.96929
728.4	0.97193
728.6	0.97169
728.8	0.97111
729.0	0.96876
729.2	0.96687
729.4	0.96539
729.6	0.96501
729.8	0.9648
730.0	0.96447
730.2	0.96272
730.4	0.96178
730.6	0.95847
730.8	0.95717
731.0	0.95669
731.2	0.95812
731.4	0.96063
731.6	0.96136
731.8	0.96
732.0	0.9576
732.2	0.95837
732.4	0.95816
732.6	0.9592
732.8	0.95995
733.0	0.96199
733.2	0.95994
733.4	0.95535
733.6	0.95479
733.8	0.95745
734.0	0.9596
734.2	0.96121
734.4	0.96109
734.6	0.96129
734.8	0.96075
735.0	0.96198
735.2	0.96293
735.4	0.96367
735.6	0.96294
735.8	0.95929
736.0	0.95729
736.2	0.95962
736.4	0.9597
736.6	0.96042
736.8	0.96211
737.0	0.96412
737.2	0.96534
737.4	0.96962
737.6	0.9677
737.8	0.96637
738.0	0.96493
738.2	0.96648
738.4	0.96652
738.6	0.96855
738.8	0.96813
739.0	0.97039
739.2	0.97221
739.4	0.97183
739.6	0.96937
739.8	0.96771
740.0	0.97097
740.2	0.97344
740.4	0.97575
740.6	0.97375
740.8	0.97321
741.0	0.97447
741.2	0.97499
741.4	0.97625
741.6	0.97665
741.8	0.97673
742.0	0.97587
742.2	0.97427
742.4	0.97298
742.6	0.9742
742.8	0.97356
743.0	0.97424
743.2	0.97302
743.4	0.9719
743.6	0.97458
743.8	0.97472
744.0	0.97539
744.2	0.97683
744.4	0.97636
744.6	0.97318
744.8	0.97481
745.0	0.97456
745.2	0.97426
745.4	0.97351
745.6	0.97315
745.8	0.97181
746.0	0.97
746.2	0.9705
746.4	0.97075
746.6	0.97063
746.8	0.96898
747.0	0.9686
747.2	0.96888
747.4	0.9655
747.6	0.96486
747.8	0.96369
748.0	0.96247
748.2	0.96276
748.4	0.96041
748.6	0.96175
748.8	0.95927
749.0	0.9602
749.2	0.96092
749.4	0.96322
749.6	0.96354
749.8	0.96283
750.0	0.96407
750.2	0.96233
750.4	0.96014
750.6	0.96044
750.8	0.96369
751.0	0.96442
751.2	0.96173
751.4	0.96006
751.6	0.96209
751.8	0.96244
752.0	0.95984
752.2	0.95947
752.4	0.95999
752.6	0.961
752.8	0.96366
753.0	0.96455
753.2	0.96537
753.4	0.96644
753.6	0.96726
753.8	0.96504
754.0	0.96562
754.2	0.96929
754.4	0.96913
754.6	0.96538
754.8	0.965
755.0	0.96614
755.2	0.96784
755.4	0.97036
755.6	0.97144
755.8	0.9707
756.0	0.97069
756.2	0.97305
756.4	0.97388
756.6	0.97339
756.8	0.97474
757.0	0.97733
757.2	0.97724
757.4	0.97613
757.6	0.97816
757.8	0.97795
758.0	0.97683
758.2	0.9759
758.4	0.97183
758.6	0.96849
758.8	0.97438
759.0	0.97743
759.2	0.9773
759.4	0.97542
759.6	0.97142
759.8	0.97102
760.0	0.97054
760.2	0.97135
760.4	0.97262
760.6	0.96954
760.8	0.96733
761.0	0.96481
761.2	0.96595
761.4	0.96936
761.6	0.9684
761.8	0.97011
762.0	0.96839
762.2	0.96829
762.4	0.96753
762.6	0.96702
762.8	0.9641
763.0	0.96499
763.2	0.96204
763.4	0.96053
763.6	0.9611
763.8	0.9597
764.0	0.95817
764.2	0.95722
764.4	0.95581
764.6	0.95483
764.8	0.95276
765.0	0.9517
765.2	0.95597
765.4	0.95565
765.6	0.95604
765.8	0.95618
766.0	0.95589
766.2	0.9608
766.4	0.96205
766.6	0.96381
766.8	0.9642
767.0	0.96343
767.2	0.95947
767.4	0.95726
767.6	0.954
767.8	0.95249
768.0	0.95537
768.2	0.95561
768.4	0.95645
768.6	0.95555
768.8	0.95425
769.0	0.95612
769.2	0.95726
769.4	0.95903
769.6	0.95658
769.8	0.95437
770.0	0.95471
770.2	0.95591
770.4	0.95718
770.6	0.95598
770.8	0.9577
771.0	0.95892
771.2	0.96193
771.4	0.96398
771.6	0.96391
771.8	0.96296
772.0	0.96429
772.2	0.96627
772.4	0.96738
772.6	0.96752
772.8	0.96868
773.0	0.96687
773.2	0.96434
773.4	0.96553
773.6	0.96678
773.8	0.96999
774.0	0.96948
774.2	0.96794
774.4	0.96519
774.6	0.96513
774.8	0.96435
775.0	0.96501
775.2	0.96588
775.4	0.96342
775.6	0.96491
775.8	0.96497
776.0	0.96431
776.2	0.96074
776.4	0.96028
776.6	0.96063
776.8	0.96095
777.0	0.96156
777.2	0.9621
777.4	0.96456
777.6	0.96536
777.8	0.96515
778.0	0.9645
778.2	0.96698
778.4	0.96442
778.6	0.96373
778.8	0.96519
779.0	0.96489
779.2	0.96216
779.4	0.96235
779.6	0.96399
779.8	0.96515
780.0	0.96177
780.2	0.95931
780.4	0.95698
780.6	0.95668
780.8	0.9566
781.0	0.95529
781.2	0.95698
781.4	0.95788
781.6	0.95545
781.8	0.9549
782.0	0.95222
782.2	0.95288
782.4	0.9514
782.6	0.95131
782.8	0.95112
783.0	0.95189
783.2	0.95209
783.4	0.95214
783.6	0.95106
783.8	0.95223
784.0	0.95251
784.2	0.95089
784.4	0.94859
784.6	0.94704
784.8	0.94489
785.0	0.94389
785.2	0.94379
785.4	0.94534
785.6	0.94784
785.8	0.9494
786.0	0.94874
786.2	0.94883
786.4	0.9507
786.6	0.95039
786.8	0.95268
787.0	0.95173
787.2	0.95238
787.4	0.95554
787.6	0.95812
787.8	0.95824
788.0	0.95775
788.2	0.95733
788.4	0.95587
788.6	0.9561
788.8	0.95816
789.0	0.95978
789.2	0.95663
789.4	0.95481
789.6	0.95563
789.8	0.95754
790.0	0.95825
790.2	0.95972
790.4	0.96134
790.6	0.95996
790.8	0.95942
791.0	0.95805
791.2	0.96033
791.4	0.96282
791.6	0.96524
791.8	0.96309
792.0	0.96467
792.2	0.967
792.4	0.96723
792.6	0.96363
792.8	0.962
793.0	0.9597
793.2	0.95992
793.4	0.96458
793.6	0.96706
793.8	0.96769
794.0	0.96532
794.2	0.96619
794.4	0.96606
794.6	0.96675
794.8	0.96759
795.0	0.96866
795.2	0.96907
795.4	0.96975
795.6	0.96914
795.8	0.96615
796.0	0.96765
796.2	0.96656
796.4	0.96743
796.6	0.96871
796.8	0.96961
797.0	0.96686
797.2	0.96598
797.4	0.96975
797.6	0.9675
797.8	0.96445
798.0	0.96457
798.2	0.96467
798.4	0.9619
798.6	0.96309
798.8	0.96304
799.0	0.96014
799.2	0.95924
799.4	0.96063
799.6	0.96077
799.8	0.95918
800.0	0.95789
800.2	0.95672
800.4	0.95763
800.6	0.95784
800.8	0.95874
801.0	0.95857
801.2	0.95628
801.4	0.95498
801.6	0.95608
801.8	0.95926
802.0	0.95794
802.2	0.95619
802.4	0.95621
802.6	0.95915
802.8	0.95721
803.0	0.95711
803.2	0.95816
803.4	0.9567
803.6	0.95548
803.8	0.95585
804.0	0.95273
804.2	0.95471
804.4	0.95746
804.6	0.95798
804.8	0.95551
805.0	0.95279
805.2	0.95368
805.4	0.95235
805.6	0.94987
805.8	0.94825
806.0	0.95034
806.2	0.95139
806.4	0.95391
806.6	0.95362
806.8	0.95179
807.0	0.95048
807.2	0.95109
807.4	0.95258
807.6	0.95462
807.8	0.9563
808.0	0.95674
808.2	0.95791
808.4	0.95979
808.6	0.96039
808.8	0.95859
809.0	0.95748
809.2	0.95944
809.4	0.9602
809.6	0.9577
809.8	0.95643
810.0	0.95747
810.2	0.96056
810.4	0.9624
810.6	0.96369
810.8	0.96409
811.0	0.96684
811.2	0.96504
811.4	0.96309
811.6	0.96077
811.8	0.96089
812.0	0.96076
812.2	0.96235
812.4	0.96533
812.6	0.96613
812.8	0.96733
813.0	0.97022
813.2	0.97208
813.4	0.9727
813.6	0.96867
813.8	0.9652
814.0	0.96467
814.2	0.96512
814.4	0.96576
814.6	0.96453
814.8	0.96389
815.0	0.96368
815.2	0.96445
815.4	0.96303
815.6	0.96414
815.8	0.96498
816.0	0.96188
816.2	0.96111
816.4	0.96108
816.6	0.96366
816.8	0.96537
817.0	0.96525
817.2	0.96622
817.4	0.96317
817.6	0.96409
817.8	0.96402
818.0	0.96286
818.2	0.96063
818.4	0.95952
818.6	0.95982
818.8	0.95734
819.0	0.95474
819.2	0.95306
819.4	0.95587
819.6	0.95793
819.8	0.95934
820.0	0.96004
820.2	0.95782
820.4	0.95721
820.6	0.95552
820.8	0.95352
821.0	0.95169
821.2	0.95184
821.4	0.9511
821.6	0.95249
821.8	0.95527
822.0	0.95436
822.2	0.95415
822.4	0.95328
822.6	0.95266
822.8	0.95249
823.0	0.95208
823.2	0.95026
823.4	0.94925
823.6	0.94759
823.8	0.94831
824.0	0.9492
824.2	0.94802
824.4	0.94807
824.6	0.9472
824.8	0.94563
825.0	0.94504
825.2	0.9462
825.4	0.9483
825.6	0.95235
825.8	0.95375
826.0	0.95288
826.2	0.94948
826.4	0.94634
826.6	0.94706
826.8	0.94965
827.0	0.94855
827.2	0.94922
827.4	0.9505
827.6	0.95224
827.8	0.95431
828.0	0.95747
828.2	0.95977
828.4	0.9615
828.6	0.9612
828.8	0.96102
829.0	0.96155
829.2	0.95933
829.4	0.95819
829.6	0.95585
829.8	0.95455
830.0	0.95491
830.2	0.95714
830.4	0.95738
830.6	0.95802
830.8	0.95996
831.0	0.9593
831.2	0.95732
831.4	0.95901
831.6	0.959
831.8	0.95883
832.0	0.95913
832.2	0.95799
832.4	0.95802
832.6	0.95416
832.8	0.95497
833.0	0.95725
833.2	0.95733
833.4	0.95892
833.6	0.96196
833.8	0.96626
834.0	0.96611
834.2	0.96429
834.4	0.96024
834.6	0.95743
834.8	0.95882
835.0	0.95803
835.2	0.95863
835.4	0.95855
835.6	0.95801
835.8	0.95783
836.0	0.95728
836.2	0.95779
836.4	0.95727
836.6	0.95618
836.8	0.95864
837.0	0.9566
837.2	0.95707
837.4	0.95852
837.6	0.95925
837.8	0.95974
838.0	0.96229
838.2	0.96132
838.4	0.95677
838.6	0.95525
838.8	0.95372
839.0	0.95383
839.2	0.95303
839.4	0.95302
839.6	0.953
839.8	0.95056
840.0	0.94806
840.2	0.94668
840.4	0.94684
840.6	0.94663
840.8	0.94747
841.0	0.95002
841.2	0.94862
841.4	0.94767
841.6	0.94621
841.8	0.9444
842.0	0.94528
842.2	0.94733
842.4	0.94802
842.6	0.94571
842.8	0.9474
843.0	0.94779
843.2	0.94612
843.4	0.9452
843.6	0.94519
843.8	0.94775
844.0	0.94768
844.2	0.94751
844.4	0.94972
844.6	0.95199
844.8	0.9506
845.0	0.95
845.2	0.94763
845.4	0.94721
845.6	0.94644
845.8	0.94828
846.0	0.94788
846.2	0.94622
846.4	0.94647
846.6	0.94763
846.8	0.94698
847.0	0.94753
847.2	0.94512
847.4	0.94694
847.6	0.95038
847.8	0.94991
848.0	0.94971
848.2	0.94717
848.4	0.94719
848.6	0.94863
848.8	0.94747
849.0	0.95067
849.2	0.95332
849.4	0.95392
849.6	0.95579
849.8	0.95585
850.0	0.9552
850.2	0.9539
850.4	0.95413
850.6	0.95452
850.8	0.95104
851.0	0.95082
851.2	0.95325
851.4	0.95199
851.6	0.95344
851.8	0.95517
852.0	0.95358
852.2	0.9548
852.4	0.95479
852.6	0.95461
852.8	0.94995
853.0	0.9527
853.2	0.95674
853.4	0.95524
853.6	0.95542
853.8	0.95478
854.0	0.9562
854.2	0.95769
854.4	0.96062
854.6	0.9619
854.8	0.9616
855.0	0.96225
855.2	0.95994
855.4	0.95923
855.6	0.95804
855.8	0.95775
856.0	0.9563
856.2	0.95651
856.4	0.96056
856.6	0.96076
856.8	0.9621
857.0	0.96221
857.2	0.96206
857.4	0.95871
857.6	0.95763
857.8	0.95851
858.0	0.95953
858.2	0.96042
858.4	0.96178
858.6	0.95912
858.8	0.95643
859.0	0.95609
859.2	0.95348
859.4	0.95588
859.6	0.95454
859.8	0.95432
860.0	0.95504
860.2	0.95383
860.4	0.95289
860.6	0.95056
860.8	0.95212
861.0	0.95289
861.2	0.9514
861.4	0.94898
861.6	0.94934
861.8	0.95071
862.0	0.95137
862.2	0.94987
862.4	0.95024
862.6	0.95027
862.8	0.94799
863.0	0.94465
863.2	0.94346
863.4	0.94396
863.6	0.94516
863.8	0.94439
864.0	0.94646
864.2	0.94876
864.4	0.94796
864.6	0.94564
864.8	0.94291
865.0	0.94343
865.2	0.94586
865.4	0.94742
865.6	0.94844
865.8	0.94839
866.0	0.94881
866.2	0.94769
866.4	0.94723
866.6	0.94855
866.8	0.94642
867.0	0.94653
867.2	0.94685
867.4	0.94851
867.6	0.94812
867.8	0.94664
868.0	0.94645
868.2	0.94901
868.4	0.94967
868.6	0.94878
868.8	0.94995
869.0	0.94986
869.2	0.94709
869.4	0.94529
869.6	0.94781
869.8	0.95034
870.0	0.95569
870.2	0.95763
870.4	0.95872
870.6	0.95917
870.8	0.95873
871.0	0.95663
871.2	0.95605
871.4	0.95373
871.6	0.9517
871.8	0.95166
872.0	0.95272
872.2	0.9547
872.4	0.95382
872.6	0.95383
872.8	0.95449
873.0	0.95438
873.2	0.95349
873.4	0.95602
873.6	0.95813
873.8	0.9613
874.0	0.95993
874.2	0.95957
874.4	0.96002
874.6	0.9586
874.8	0.95609
875.0	0.95751
875.2	0.95657
875.4	0.95555
875.6	0.95731
875.8	0.95904
876.0	0.9583
876.2	0.95993
876.4	0.9606
876.6	0.95773
876.8	0.95599
877.0	0.96016
877.2	0.96175
877.4	0.96334
877.6	0.96133
877.8	0.96172
878.0	0.96133
878.2	0.96066
878.4	0.95878
878.6	0.95997
878.8	0.96372
879.0	0.96173
879.2	0.96226
879.4	0.96049
879.6	0.9563
879.8	0.95756
880.0	0.96063
880.2	0.95872
880.4	0.95959
880.6	0.96241
880.8	0.96237
881.0	0.9616
881.2	0.96039
881.4	0.95889
881.6	0.95864
881.8	0.96033
882.0	0.96068
882.2	0.95645
882.4	0.95244
882.6	0.95262
882.8	0.95352
883.0	0.9509
883.2	0.94847
883.4	0.94947
883.6	0.94919
883.8	0.94658
884.0	0.94599
884.2	0.95007
884.4	0.94789
884.6	0.94783
884.8	0.94582
885.0	0.94481
885.2	0.94385
885.4	0.94643
885.6	0.94548
885.8	0.9418
886.0	0.9383
886.2	0.93658
886.4	0.93878
886.6	0.94224
886.8	0.94277
887.0	0.94251
887.2	0.94222
887.4	0.94081
887.6	0.9378
887.8	0.94112
888.0	0.94279
888.2	0.94584
888.4	0.94694
888.6	0.94846
888.8	0.94895
889.0	0.94801
889.2	0.94486
889.4	0.94529
889.6	0.94466
889.8	0.94666
890.0	0.94803
890.2	0.94537
890.4	0.94378
890.6	0.94315
890.8	0.94249
891.0	0.9417
891.2	0.942
891.4	0.94182
891.6	0.93922
891.8	0.93957
892.0	0.94024
892.2	0.94169
892.4	0.94148
892.6	0.94261
892.8	0.94033
893.0	0.9416
893.2	0.94373
893.4	0.94614
893.6	0.94629
893.8	0.94453
894.0	0.94511
894.2	0.94379
894.4	0.94387
894.6	0.9441
894.8	0.94565
895.0	0.94451
895.2	0.94271
895.4	0.94225
895.6	0.94459
895.8	0.94589
896.0	0.94463
896.2	0.94312
896.4	0.94435
896.6	0.94425
896.8	0.94637
897.0	0.94551
897.2	0.94362
897.4	0.94391
897.6	0.94776
897.8	0.94376
898.0	0.94206
898.2	0.94399
898.4	0.94692
898.6	0.94882
898.8	0.94786
899.0	0.94696
899.2	0.94762
899.4	0.9472
899.6	0.94471
899.8	0.9458
900.0	0.94685
900.2	0.94774
900.4	0.9473
900.6	0.95024
900.8	0.94684
901.0	0.94441
901.2	0.9453
901.4	0.94514
901.6	0.94582
901.8	0.94694
902.0	0.94668
902.2	0.95003
902.4	0.94904
902.6	0.94711
902.8	0.94618
903.0	0.94359
903.2	0.94458
903.4	0.94463
903.6	0.94592
903.8	0.94727
904.0	0.94606
904.2	0.9425
904.4	0.94116
904.6	0.93995
904.8	0.94026
905.0	0.94276
905.2	0.94354
905.4	0.9446
905.6	0.94313
905.8	0.94317
906.0	0.94379
906.2	0.94321
906.4	0.94102
906.6	0.94054
906.8	0.94014
907.0	0.93979
907.2	0.94125
907.4	0.94201
907.6	0.94167
907.8	0.94236
908.0	0.9425
908.2	0.94224
908.4	0.94016
908.6	0.94102
908.8	0.94059
909.0	0.94256
909.2	0.94384
909.4	0.94514
909.6	0.94651
909.8	0.94694
910.0	0.945
