wavelength	fluorescence
nm	a.u.
450.0	0.000
450.5	0.000
451.0	0.000
451.5	0.000
452.0	0.000
452.5	0.000
453.0	0.000
453.5	0.000
454.0	0.000
454.5	0.000
455.0	0.000
455.5	0.000
456.0	0.000
456.5	0.000
457.0	0.000
457.5	0.000
458.0	0.000
458.5	0.000
459.0	0.000
459.5	0.000
460.0	0.000
460.5	0.000
461.0	0.000
461.5	0.000
462.0	0.000
462.5	0.000
463.0	0.000
463.5	0.000
464.0	0.000
464.5	0.000
465.0	0.000
465.5	0.000
466.0	0.000
466.5	0.000
467.0	0.000
467.5	0.000
468.0	0.000
468.5	0.000
469.0	0.000
469.5	0.000
470.0	0.000
470.5	0.000
471.0	0.000
471.5	0.000
472.0	0.000
472.5	0.000
473.0	0.000
473.5	0.000
474.0	0.000
474.5	0.000
475.0	0.000
475.5	0.000
476.0	0.000
476.5	0.000
477.0	0.000
477.5	0.000
478.0	0.000
478.5	0.000
479.0	0.000
479.5	0.000
480.0	0.000
480.5	0.000
481.0	0.000
481.5	0.000
482.0	0.000
482.5	0.000
483.0	0.000
483.5	0.000
484.0	0.000
484.5	0.000
485.0	0.000
485.5	0.000
486.0	0.000
486.5	0.000
487.0	0.000
487.5	0.000
488.0	0.000
488.5	0.000
489.0	0.000
489.5	0.000
490.0	0.000
490.5	0.000
491.0	0.000
491.5	0.000
492.0	0.000
492.5	0.000
493.0	0.000
493.5	0.000
494.0	0.000
494.5	0.000
495.0	0.000
495.5	0.000
496.0	0.000
496.5	0.000
497.0	0.000
497.5	0.000
498.0	0.000
498.5	0.000
499.0	0.000
499.5	0.000
500.0	0.000
500.5	0.000
501.0	0.000
501.5	0.000
502.0	0.000
502.5	0.000
503.0	0.001
503.5	0.001
504.0	0.001
504.5	0.001
505.0	0.001
505.5	0.001
506.0	0.001
506.5	0.001
507.0	0.001
507.5	0.001
508.0	0.001
508.5	0.002
509.0	0.002
509.5	0.002
510.0	0.002
510.5	0.002
511.0	0.003
511.5	0.003
512.0	0.003
512.5	0.004
513.0	0.004
513.5	0.004
514.0	0.005
514.5	0.006
515.0	0.006
515.5	0.007
516.0	0.008
516.5	0.009
517.0	0.010
517.5	0.011
518.0	0.012
518.5	0.014
519.0	0.015
519.5	0.017
520.0	0.020
520.5	0.021
521.0	0.024
521.5	0.027
522.0	0.030
522.5	0.034
523.0	0.037
523.5	0.042
524.0	0.047
524.5	0.052
525.0	0.058
525.5	0.063
526.0	0.071
526.5	0.078
527.0	0.086
527.5	0.096
528.0	0.105
528.5	0.115
529.0	0.127
529.5	0.138
530.0	0.152
530.5	0.167
531.0	0.182
531.5	0.199
532.0	0.216
532.5	0.237
533.0	0.254
533.5	0.273
534.0	0.295
534.5	0.317
535.0	0.341
535.5	0.366
536.0	0.390
536.5	0.418
537.0	0.443
537.5	0.469
538.0	0.497
538.5	0.524
539.0	0.553
539.5	0.580
540.0	0.613
540.5	0.638
541.0	0.663
541.5	0.691
542.0	0.716
542.5	0.742
543.0	0.764
543.5	0.791
544.0	0.820
544.5	0.838
545.0	0.859
545.5	0.877
546.0	0.895
546.5	0.911
547.0	0.926
547.5	0.942
548.0	0.955
548.5	0.964
549.0	0.969
549.5	0.979
550.0	0.987
550.5	0.993
551.0	0.996
551.5	0.998
552.0	1.000
552.5	1.000
553.0	0.996
553.5	0.997
554.0	0.992
554.5	0.981
555.0	0.972
555.5	0.970
556.0	0.963
556.5	0.955
557.0	0.944
557.5	0.933
558.0	0.924
558.5	0.914
559.0	0.901
559.5	0.887
560.0	0.876
560.5	0.861
561.0	0.847
561.5	0.834
562.0	0.821
562.5	0.807
563.0	0.794
563.5	0.781
564.0	0.767
564.5	0.751
565.0	0.741
565.5	0.728
566.0	0.713
566.5	0.701
567.0	0.688
567.5	0.675
568.0	0.660
568.5	0.647
569.0	0.637
569.5	0.621
570.0	0.612
570.5	0.597
571.0	0.584
571.5	0.571
572.0	0.559
572.5	0.548
573.0	0.540
573.5	0.527
574.0	0.518
574.5	0.505
575.0	0.497
575.5	0.487
576.0	0.477
576.5	0.466
577.0	0.456
577.5	0.450
578.0	0.442
578.5	0.432
579.0	0.424
579.5	0.418
580.0	0.409
580.5	0.402
581.0	0.395
581.5	0.390
582.0	0.385
582.5	0.377
583.0	0.371
583.5	0.364
584.0	0.360
584.5	0.356
585.0	0.354
585.5	0.349
586.0	0.345
586.5	0.340
587.0	0.336
587.5	0.332
588.0	0.327
588.5	0.324
589.0	0.322
589.5	0.317
590.0	0.313
590.5	0.311
591.0	0.310
591.5	0.307
592.0	0.305
592.5	0.303
593.0	0.300
593.5	0.296
594.0	0.294
594.5	0.290
595.0	0.289
595.5	0.285
596.0	0.283
596.5	0.282
597.0	0.280
597.5	0.276
598.0	0.274
598.5	0.270
599.0	0.268
599.5	0.264
600.0	0.261
600.5	0.258
601.0	0.256
601.5	0.253
602.0	0.250
602.5	0.247
603.0	0.244
603.5	0.241
604.0	0.237
604.5	0.234
605.0	0.232
605.5	0.228
606.0	0.225
606.5	0.223
607.0	0.218
607.5	0.216
608.0	0.212
608.5	0.208
609.0	0.205
609.5	0.202
610.0	0.199
610.5	0.196
611.0	0.192
611.5	0.190
612.0	0.186
612.5	0.182
613.0	0.178
613.5	0.175
614.0	0.172
614.5	0.169
615.0	0.166
615.5	0.163
616.0	0.161
616.5	0.159
617.0	0.155
617.5	0.152
618.0	0.149
618.5	0.147
619.0	0.143
619.5	0.141
620.0	0.137
620.5	0.136
621.0	0.133
621.5	0.131
622.0	0.128
622.5	0.126
623.0	0.124
623.5	0.120
624.0	0.117
624.5	0.116
625.0	0.114
625.5	0.111
626.0	0.109
626.5	0.108
627.0	0.104
627.5	0.103
628.0	0.100
628.5	0.099
629.0	0.097
629.5	0.095
630.0	0.093
630.5	0.090
631.0	0.090
631.5	0.087
632.0	0.086
632.5	0.084
633.0	0.083
633.5	0.081
634.0	0.080
634.5	0.078
635.0	0.076
635.5	0.075
636.0	0.074
636.5	0.073
637.0	0.071
637.5	0.069
638.0	0.068
638.5	0.067
639.0	0.065
639.5	0.064
640.0	0.063
640.5	0.062
641.0	0.061
641.5	0.060
642.0	0.060
642.5	0.058
643.0	0.057
643.5	0.055
644.0	0.056
644.5	0.055
645.0	0.054
645.5	0.053
646.0	0.052
646.5	0.051
647.0	0.051
647.5	0.049
648.0	0.048
648.5	0.048
649.0	0.047
649.5	0.047
650.0	0.046
650.5	0.045
651.0	0.045
651.5	0.045
652.0	0.043
652.5	0.042
653.0	0.042
653.5	0.042
654.0	0.041
654.5	0.040
655.0	0.040
655.5	0.039
656.0	0.039
656.5	0.038
657.0	0.037
657.5	0.037
658.0	0.036
658.5	0.036
659.0	0.035
659.5	0.035
660.0	0.034
660.5	0.034
661.0	0.033
661.5	0.034
662.0	0.033
662.5	0.032
663.0	0.032
663.5	0.031
664.0	0.031
664.5	0.031
665.0	0.030
665.5	0.030
666.0	0.029
666.5	0.029
667.0	0.028
667.5	0.028
668.0	0.027
668.5	0.027
669.0	0.027
669.5	0.027
670.0	0.026
670.5	0.025
671.0	0.025
671.5	0.024
672.0	0.024
672.5	0.024
673.0	0.023
673.5	0.023
674.0	0.023
674.5	0.023
675.0	0.022
675.5	0.022
676.0	0.021
676.5	0.021
677.0	0.021
677.5	0.020
678.0	0.020
678.5	0.020
679.0	0.020
679.5	0.019
680.0	0.019
680.5	0.019
681.0	0.018
681.5	0.018
682.0	0.018
682.5	0.018
683.0	0.017
683.5	0.017
684.0	0.017
684.5	0.016
685.0	0.016
685.5	0.016
686.0	0.015
686.5	0.015
687.0	0.015
687.5	0.014
688.0	0.014
688.5	0.014
689.0	0.014
689.5	0.014
690.0	0.013
690.5	0.014
691.0	0.013
691.5	0.012
692.0	0.012
692.5	0.012
693.0	0.012
693.5	0.012
694.0	0.011
694.5	0.011
695.0	0.011
695.5	0.011
696.0	0.011
696.5	0.010
697.0	0.010
697.5	0.010
698.0	0.010
698.5	0.010
699.0	0.010
699.5	0.009
700.0	0.009
700.5	0.009
701.0	0.009
701.5	0.009
702.0	0.009
702.5	0.009
703.0	0.008
703.5	0.008
704.0	0.008
704.5	0.008
705.0	0.008
705.5	0.008
706.0	0.008
706.5	0.008
707.0	0.007
707.5	0.007
708.0	0.007
708.5	0.007
709.0	0.007
709.5	0.007
710.0	0.007
710.5	0.007
711.0	0.006
711.5	0.006
712.0	0.006
712.5	0.006
713.0	0.006
713.5	0.006
714.0	0.006
714.5	0.006
715.0	0.006
715.5	0.005
716.0	0.005
716.5	0.005
717.0	0.005
717.5	0.005
718.0	0.005
718.5	0.005
719.0	0.005
719.5	0.005
720.0	0.005
720.5	0.005
721.0	0.005
721.5	0.005
722.0	0.005
722.5	0.005
723.0	0.004
723.5	0.004
724.0	0.004
724.5	0.005
725.0	0.004
725.5	0.004
726.0	0.004
726.5	0.004
727.0	0.004
727.5	0.004
728.0	0.004
728.5	0.004
729.0	0.004
729.5	0.003
730.0	0.004
730.5	0.004
731.0	0.004
731.5	0.004
732.0	0.003
732.5	0.004
733.0	0.003
733.5	0.003
734.0	0.003
734.5	0.003
735.0	0.003
735.5	0.003
736.0	0.003
736.5	0.003
737.0	0.003
737.5	0.003
738.0	0.003
738.5	0.003
739.0	0.003
739.5	0.003
740.0	0.003
740.5	0.003
741.0	0.003
741.5	0.003
742.0	0.003
742.5	0.003
743.0	0.003
743.5	0.003
744.0	0.003
744.5	0.002
745.0	0.002
745.5	0.003
746.0	0.002
746.5	0.002
747.0	0.003
747.5	0.002
748.0	0.002
748.5	0.002
749.0	0.002
749.5	0.002
750.0	0.002
750.5	0.002
751.0	0.002
751.5	0.002
752.0	0.002
752.5	0.002
753.0	0.002
753.5	0.002
754.0	0.002
754.5	0.002
755.0	0.002
755.5	0.002
756.0	0.002
756.5	0.002
757.0	0.002
757.5	0.002
758.0	0.002
758.5	0.002
759.0	0.002
759.5	0.002
760.0	0.002
760.5	0.002
761.0	0.002
761.5	0.002
762.0	0.002
762.5	0.002
763.0	0.002
763.5	0.002
764.0	0.002
764.5	0.001
765.0	0.001
765.5	0.002
766.0	0.001
766.5	0.001
767.0	0.001
767.5	0.001
768.0	0.001
768.5	0.001
769.0	0.001
769.5	0.001
770.0	0.001
770.5	0.001
771.0	0.001
771.5	0.001
772.0	0.001
772.5	0.001
773.0	0.001
773.5	0.001
774.0	0.001
774.5	0.001
775.0	0.001
775.5	0.001
776.0	0.001
776.5	0.001
777.0	0.001
777.5	0.001
778.0	0.001
778.5	0.001
779.0	0.001
779.5	0.001
780.0	0.001
780.5	0.001
781.0	0.001
781.5	0.001
782.0	0.001
782.5	0.001
783.0	0.001
783.5	0.001
784.0	0.001
784.5	0.001
785.0	0.001
785.5	0.001
786.0	0.001
786.5	0.001
787.0	0.001
787.5	0.001
788.0	0.001
788.5	0.001
789.0	0.001
789.5	0.001
790.0	0.001
790.5	0.001
791.0	0.001
791.5	0.001
792.0	0.001
792.5	0.001
793.0	0.001
793.5	0.001
794.0	0.001
794.5	0.001
795.0	0.001
795.5	0.001
796.0	0.001
796.5	0.001
797.0	0.001
797.5	0.000
798.0	0.001
798.5	0.001
799.0	0.001
799.5	0.001
800.0	0.001
800.5	0.001
801.0	0.001
801.5	0.000
802.0	0.001
802.5	0.001
803.0	0.001
803.5	0.001
804.0	0.001
804.5	0.001
805.0	0.000
805.5	0.000
806.0	0.001
806.5	0.000
807.0	0.000
807.5	0.000
808.0	0.000
808.5	0.000
809.0	0.001
809.5	0.001
810.0	0.000
810.5	0.000
811.0	0.000
811.5	0.000
812.0	0.000
812.5	0.000
813.0	0.000
813.5	0.000
814.0	0.000
814.5	0.000
815.0	0.000
815.5	0.001
816.0	0.001
816.5	0.000
817.0	0.000
817.5	0.000
818.0	0.000
818.5	0.000
819.0	0.000
819.5	0.001
820.0	0.000
820.5	0.000
821.0	0.000
821.5	0.000
822.0	0.000
822.5	0.001
823.0	0.000
823.5	0.000
824.0	0.000
824.5	0.000
825.0	0.000
825.5	0.000
826.0	0.000
826.5	0.000
827.0	0.000
827.5	0.000
828.0	0.000
828.5	0.000
829.0	0.000
829.5	0.000
830.0	0.000
830.5	0.000
831.0	0.000
831.5	0.000
832.0	0.000
832.5	0.000
833.0	0.000
833.5	0.000
834.0	0.000
834.5	0.000
835.0	0.000
835.5	0.000
836.0	0.000
836.5	0.000
837.0	0.000
837.5	0.000
838.0	0.000
838.5	0.000
839.0	0.000
839.5	0.000
840.0	0.000
840.5	0.000
841.0	0.000
841.5	0.000
842.0	0.000
842.5	0.000
843.0	0.000
843.5	0.000
844.0	0.000
844.5	0.000
845.0	0.000
845.5	0.000
846.0	0.000
846.5	0.000
847.0	0.000
847.5	0.000
848.0	0.000
848.5	0.000
849.0	0.000
849.5	0.000
850.0	0.000
